Lithium Borate (LiBO2)	B1Li1O2(l)
T(K)	Cp	S	-[G-H(Tr)]/T	H-H(Tr)	delta-f H	delta-f G	log Kf
0														
100														
200														
298.15	60.371	65.547	65.547	0.	-1000.259	-948.226	166.125
300	60.618	65.921	65.548	0.112	-1000.268	-947.903	165.045
400	71.145	84.928	68.069	6.744	-1000.570	-930.396	121.497
500	78.605	101.634	73.146	14.244	-1003.793	-912.520	95.330
600	85.057	116.544	79.158	22.432	-1003.729	-894.264	77.853
700	91.098	130.113	85.482	31.242	-1003.254	-876.052	65.372
745.000	93.741	135.871	88.352	35.401	GLASS <--> LIQUID
745.000	144.310	135.871	88.352	35.401	TRANSITION
800	144.310	146.149	91.977	43.338	-999.673	-858.034	56.024
900	144.310	163.147	98.959	57.769	-993.921	-840.677	48.792
1000	144.310	178.351	106.151	72.200	-988.300	-823.952	43.039
1100	144.310	192.106	113.350	86.631	-982.789	-807.784	38.358
1117.000	144.310	194.319	114.565	89.085	CRYSTAL <--> LIQUID
1200	144.310	204.662	120.444	101.062	977.372  792.115 34.480
1300	144.310	216.213	127.372	115.493	-972.038	-776.894	31.216
1400	144.310	226.908	134.105	129.924	-966.776	-762.080	28.434
1500	144.310	236.864	140.627	144.355	-961.578	-747.641	26.035
1600	144.310	246.178	146.936	158.786	-956.440	-733.546	23.948
1700	144.310	254.927	153.034	173.218	-1096.594	-712.595	21.895
1800	144.310	263.175	158.926	187.649	-1090.814	-690.175	20.028
1900	144.310	270.978	164.620	202.080	-1085.096	-668.073	18.367
2000	144.310	278.380	170.124	216.511	-1079.438	-646.271	16.879
2100	144.310	285.421	175.448	230.942	-1073.842	-624.751	15.540
2200	144.310	292.134	180.601	245.373	-1068.306	-603.495	14.329
2300	144.310	298.549	185.591	259.804	-1062.832	-582.490	13.229
2400	144.310	304.691	190.426	274.235	-1107.678	-560.653	12.202
2500	144.310	310.582	195.115	288.666	-1102.406	-537.969	11.240
2600	144.310	316.242	199.666	303.097	-1097.164	-515.495	10.356
2700	144.310	321.688	204.085	317.528	-1091.954	-493.222	9.542
2800	144.310	326.936	208.379	331.959	-1086.777	-471.141	8.789
2900	144.310	332.000	212.555	346.390	-1081.634	-449.246	8.092
3000	144.310	336.893	216.619	360.821	-1076.526	-427.526	7.444
