Manganese (Mn)	Mn1(cr,l)
T(K)	Cp	S	-[G-H(Tr)]/T	H-H(Tr)	delta-f H	delta-f G	log Kf
0	0.	0.	INFINITE	-4.994	0.	0.	0.
100	14.723	8.875	52.876	-4.400	0.	0.	0.
200	23.054	22.133	34.325	-2.438	0.	0.	0.
250	24.948	27.493	32.436	-1.236	0.	0.	0.
298.15	26.299	32.010	32.010	0.	0.	0.	0.
300	26.347	32.173	32.010	0.049	0.	0.	0.
350	27.516	36.325	32.336	1.396	0.	0.	0.
400	28.527	40.066	33.072	2.798	0.	0.	0.
450	30.020	43.524	34.043	4.266	0.	0.	0.
500	30.292	46.696	35.152	5.772	0.	0.	0.
600	31.899	52.362	37.559	8.882	0.	0.	0.
700	33.426	57.395	40.039	12.149	0.	0.	0.
800	34.915	61.956	42.498	15.566	0.	0.	0.
900	36.384	66.153	44.896	19.131	0.	0.	0.
980.000	37.545	69.300	46.761	22.088	ALPHA <--> BETA
980.000	37.572	71.572	46.761	24.314	TRANSITION
1000	37.698	72.332	47.265	25.067	0.	0.	0.
1100	38.116	75.945	49.710	28.858	0.	0.	0.
1200	38.535	79.279	52.037	32.690	0.	0.	0.
1300	38.953	82.380	54.253	36.565	0.	0.	0.
1361.000	39.204	84.172	55.554	38.948	BETA <--> GAMMA
1361.000	43.095	85.731	55.554	41.070	TRANSITION
1400	43.430	86.953	56.412	42.757	0.	0.	0.
1412.000	43.514	87.324	56.673	43.279	GAMMA <--> DELTA
1412.000	45.229	88.655	56.673	45.158	TRANSITION
1500	45.982	91.413	58.631	49.173	0.	0.	0.
1519.000	46.108	91.993	59.045	50.048	DELTA <--> LIQUID
1519.000	46.024	99.931	59.045	62.106	TRANSITION
1600	46.024	102.322	61.176	65.834	0.	0.	0.
1700	46.024	105.112	63.679	70.436	0.	0.	0.
1800	46.024	107.743	66.055	75.039	0.	0.	0.
1900	46.024	110.231	68.315	79.641	0.	0.	0.
2000	46.024	112.592	70.470	84.244	0.	0.	0.
2100	46.024	114.837	72.530	88.846	0.	0.	0.
2200	46.024	116.978	74.502	93.448	0.	0.	0.
2300	46.024	119.024	76.393	98.051	0.	0.	0.
2334.526	46.024	119.710	77.029	99.640	FUGACITY = 1 bar
2400	46.024	120.983	78.211	102.653	224.340 6.315  0.137
2500	46.024	122.862	79.960	107.256	-221.841	15.874	-0.332
2600	46.024	124.667	81.645	111.858	-219.353	25.334	-0.509
2700	46.024	126.404	83.270	116.460	-216.877	34.698	-0.671
2800	46.024	128.078	84.841	121.063	-214.417	43.970	-0.820
2900	46.024	129.693	86.360	125.665	-211.977	53.155	-0.957
3000	46.024	131.253	87.830	130.268	-209.559	62.256	-1.084
