Nickel (Ni)	Ni1(l)
T(K)	Cp	S	-[G-H(Tr)]/T	H-H(Tr)	delta-f H	delta-f G	log Kf
0														
100														
200														
250														
298.15	26.133	41.487	41.487	0.	17.479	14.016	-2.456
300	26.150	41.648	41.487	0.048	17.480	13.994	-2.437
350	26.568	45.711	41.807	1.366	17.464	13.414	-2.002
400	26.987	49.286	42.523	2.705	17.408	12.839	-1.677
450	27.405	52.489	43.455	4.065	17.316	12.273	-1.425
500	27.824	55.398	44.506	5.446	17.182	11.719	-1.224
600	28.660	60.544	46.761	8.270	16.728	10.665	-0.928
700	29.497	65.025	49.057	11.178	16.313	9.698	-0.724
800	30.334	69.019	51.307	14.169	16.218	8.760	-0.572
900	31.171	72.640	53.479	17.245	16.164	7.831	-0.455
1000	32.008	75.967	55.564	20.404	16.133	6.907	-0.361
1100	32.844	79.057	57.561	23.646	16.119	5.986	-0.284
1200	33.681	81.951	59.474	26.972	16.115	5.065	-0.220
1300	34.518	84.680	61.309	30.382	16.116	4.144	-0.166
1300.000	34.518	84.680	61.309	30.382	GLASS <--> LIQUID
1300.000	38.911	84.680	61.309	30.382	TRANSITION
1400	38.911	87.564	63.083	34.273	16.511	3.207	-0.120
1500	38.911	90.248	64.805	38.165	16.817	2.246	-0.078
1600	38.911	92.759	66.475	42.056	17.029	1.267	-0.041
1700	38.911	95.118	68.091	45.947	17.140	0.278	-0.009
1728.000	38.911	95.754	68.534	47.036	CRYSTAL <--> LIQUID
1800	38.911	97.343	69.655	49.838	0. 0. 0.
1900	38.911	99.446	71.168	53.729	0.	0.	0.
2000	38.911	101.442	72.632	57.620	0.	0.	0.
2100	38.911	103.341	74.050	61.511	0.	0.	0.
2200	38.911	105.151	75.423	65.402	0.	0.	0.
2300	38.911	106.881	76.753	69.294	0.	0.	0.
2400	38.911	108.537	78.043	73.185	0.	0.	0.
2500	38.911	110.125	79.295	77.076	0.	0.	0.
2600	38.911	111.651	80.510	80.967	0.	0.	0.
2700	38.911	113.120	81.691	84.858	0.	0.	0.
2800	38.911	114.535	82.839	88.749	0.	0.	0.
2900	38.911	115.900	83.955	92.640	0.	0.	0.
3000	38.911	117.219	85.042	96.531	0.	0.	0.
3100	38.911	118.495	86.101	100.423	0.	0.	0.
3156.584	38.911	119.199	86.688	102.624	FUGACITY = 1 bar
3200	38.911	119.731	87.133	104.314	376.835 5.189  0.085
3300	38.911	120.928	88.139	108.205	-375.182	17.101	-0.271
3400	38.911	122.090	89.120	112.096	-373.527	28.964	-0.445
3500	38.911	123.218	90.078	115.987	-371.873	40.778	-0.609
3600	38.911	124.314	91.014	119.878	-370.219	52.544	-0.762
