Barium (Ba)	Ba1(ref)
T(K)	Cp	S	-[G-H(Tr)]/T	H-H(Tr)	delta-f H	delta-f G	log Kf
0	0.	0.	INFINITE	-6.912	0.	0.	0.
100	24.301	34.083	86.220	-5.214	0.	0.	0.
200	26.368	51.643	64.988	-2.669	0.	0.	0.
298.15	28.096	62.475	62.475	0.	0.	0.	0.
300	28.142	62.649	62.476	0.052	0.	0.	0.
400	33.229	71.295	63.622	3.069	0.	0.	0.
500	43.744	79.771	65.997	6.887	0.	0.	0.
582.530	54.400	87.232	68.471	10.929	ALPHA <--> BETA
+	
582.530	32.468	87.232	68.471	10.929	TRANSITION
600	33.941	88.213	69.031	11.509	0.	0.	0.
700	42.363	94.077	72.186	15.324	0.	0.	0.
768.130	48.103	98.274	74.313	18.406	BETA <--> GAMMA
+	
768.130	39.066	98.274	74.313	18.406	TRANSITION
800	39.066	99.863	75.299	19.651	0.	0.	0.
900	39.066	104.464	78.289	23.557	0.	0.	0.
1000	39.066	108.580	81.116	27.464	0.	0.	0.
1000.000	39.066	108.580	81.116	27.464	GAMMA <--> LIQUID
+	
1000.000	43.304	116.592	81.116	35.476	TRANSITION
1100	42.007	120.657	84.530	39.741	0.	0.	0.
1200	40.878	124.262	87.693	43.883	0.	0.	0.
1300	39.999	127.498	90.633	47.925	0.	0.	0.
1400	39.330	130.437	93.373	51.890	0.	0.	0.
1500	38.869	133.133	95.935	55.798	0.	0.	0.
1600	38.618	135.633	98.339	59.670	0.	0.	0.
1700	38.576	137.971	100.602	63.528	0.	0.	0.
1800	38.740	140.180	102.740	67.392	0.	0.	0.
1900	39.116	142.284	104.766	71.283	0.	0.	0.
2000	39.706	144.304	106.693	75.223	0.	0.	0.
2100	40.518	146.260	108.531	79.232	0.	0.	0.
2118.599	40.692	146.618	108.863	79.987	LIQUID <--> IDEAL GAS
+	
2118.599	30.938	212.831	108.863	220.265	FUGACITY = 1 bar
2200	32.665	214.029	112.732	222.853	0.	0.	0.
2300	34.873	215.530	117.169	226.230	0.	0.	0.
2400	37.123	217.062	121.299	229.830	0.	0.	0.
2500	39.355	218.622	125.161	233.654	0.	0.	0.
2600	41.512	220.208	128.786	237.698	0.	0.	0.
2700	43.543	221.814	132.202	241.952	0.	0.	0.
2800	45.406	223.431	135.431	246.401	0.	0.	0.
2900	47.068	225.054	138.493	251.026	0.	0.	0.
3000	48.509	226.675	141.406	255.807	0.	0.	0.
3100	49.718	228.286	144.182	260.720	0.	0.	0.
3200	50.695	229.880	146.836	265.743	0.	0.	0.
3300	51.410	231.450	149.376	270.844	0.	0.	0.
3400	51.931	232.992	151.813	276.012	0.	0.	0.
3500	52.262	234.503	154.154	281.223	0.	0.	0.
3600	52.420	235.978	156.406	286.458	0.	0.	0.
3700	52.431	237.415	158.576	291.702	0.	0.	0.
3800	52.319	238.812	160.669	296.940	0.	0.	0.
3900	52.105	240.168	162.691	302.162	0.	0.	0.
4000	51.814	241.483	164.644	307.358	0.	0.	0.
4200	51.068	243.993	168.363	317.645	0.	0.	0.
4400	50.234	246.350	171.855	327.776	0.	0.	0.
4600	49.384	248.563	175.143	337.732	0.	0.	0.
4800	48.545	250.640	178.245	347.499	0.	0.	0.
5000	47.832	252.606	181.180	357.129	0.	0.	0.
5200	47.194	254.465	183.963	366.608	0.	0.	0.
5400	46.697	256.236	186.607	375.995	0.	0.	0.
5600	46.176	257.908	189.122	385.200	0.	0.	0.
5800	45.812	259.517	191.522	394.376	0.	0.	0.
6000	45.369	261.036	193.810	403.351	0.	0.	0.
