Sodium Chloride (NaCl)	Cl1Na1(l)
T(K)	Cp	S	-[G-H(Tr)]/T	H-H(Tr)	delta-f H	delta-f G	log Kf
0														
100														
200														
298.15	50.509	95.055	95.055	0.	-385.923	-365.667	64.063
300	50.543	95.367	95.055	0.093	-385.913	-365.541	63.646
400	52.350	110.165	97.061	5.242	-388.121	-358.615	46.830
500	53.940	122.019	100.905	10.557	-387.693	-351.283	36.698
600	55.476	131.989	105.276	16.028	-387.055	-344.058	29.953
700	57.204	140.666	109.725	21.659	-386.212	-336.955	25.144
800	59.312	148.437	114.086	27.481	-385.149	-329.988	21.546
800.000	59.312	148.437	114.086	27.481	GLASS <--> LIQUID
800.000	76.400	148.437	114.086	27.481	TRANSITION
900	74.852	157.354	118.410	35.050	-382.327	-323.264	18.762
1000	72.509	165.127	122.702	42.425	-379.707	-316.845	16.550
1073.800	70.668	170.225	125.796	47.708	CRYSTAL <--> LIQUID
1100	70.082	171.921	126.874	49.552	377.364  310.674 14.753
1200	68.325	177.937	130.883	56.464	-472.043	-302.265	13.157
1300	67.446	183.367	134.715	63.248	-469.224	-288.232	11.581
1400	67.070	188.351	138.371	69.972	-466.469	-274.413	10.238
1500	66.944	192.973	141.858	76.672	-463.744	-260.790	9.082
1600	66.944	197.293	145.190	83.366	-461.028	-247.349	8.075
1700	66.944	201.352	148.375	90.061	-458.317	-234.077	7.192
1800	66.944	205.178	151.426	96.755	-455.610	-220.964	6.412
1900	66.944	208.798	154.351	103.449	-452.909	-208.002	5.718
2000	66.944	212.232	157.160	110.144	-450.213	-195.182	5.098
2100	66.944	215.498	159.861	116.838	-447.524	-182.497	4.539
2200	66.944	218.612	162.461	123.533	-444.842	-169.939	4.035
2300	66.944	221.588	164.967	130.227	-442.169	-157.503	3.577
2400	66.944	224.437	167.386	136.921	-439.506	-145.184	3.160
2500	66.944	227.170	169.723	143.616	-436.855	-132.975	2.778
