Zirconium Fluoride (ZrF2)	F2Zr1(l)
T(K)	Cp	S	-[G-H(Tr)]/T	H-H(Tr)	delta-f H	delta-f G	log Kf
0														
100														
200														
298.15	65.940	100.846	100.846	0.	-936.951	-894.968	156.795
300	66.024	101.254	100.847	0.122	-936.934	-894.708	155.782
400	69.873	120.787	103.484	6.921	-935.914	-880.782	115.018
500	73.220	136.746	108.588	14.079	-934.746	-867.131	90.589
600	76.149	150.361	114.442	21.551	-933.439	-853.729	74.324
700	78.659	162.295	120.443	29.296	-932.012	-840.555	62.723
800	80.626	172.933	126.351	37.265	-930.502	-827.592	54.036
800.000	80.626	172.933	126.351	37.265	GLASS <--> LIQUID
800.000	100.416	172.933	126.351	37.265	TRANSITION
900	100.416	184.760	132.197	47.306	-927.063	-814.936	47.298
1000	100.416	195.340	137.992	57.348	-923.767	-802.656	41.926
1100	100.416	204.910	143.647	67.390	-920.616	-790.698	37.547
1175.000	100.416	211.534	147.771	74.921	CRYSTAL <--> LIQUID
1200	100.416	213.648	149.122	77.431	921.322  778.800 33.900
1300	100.416	221.685	154.398	87.473	-917.919	-767.061	30.821
1400	100.416	229.127	159.474	97.514	-914.578	-755.583	28.191
1500	100.416	236.055	164.351	107.556	-911.311	-744.340	25.920
1600	100.416	242.536	169.037	117.598	-908.125	-733.313	23.940
1700	100.416	248.623	173.541	127.639	-905.029	-722.483	22.199
1800	100.416	254.363	177.874	137.681	-902.033	-711.832	20.657
1900	100.416	259.792	182.043	147.722	-899.144	-701.344	19.281
2000	100.416	264.943	186.061	157.764	-896.371	-691.006	18.047
2100	100.416	269.842	189.935	167.806	-893.719	-680.804	16.934
2200	100.416	274.513	193.674	177.847	-912.521	-669.979	15.907
2300	100.416	278.977	197.286	187.889	-910.551	-658.998	14.966
2400	100.416	283.251	200.780	197.930	-908.577	-648.103	14.106
2500	100.416	287.350	204.161	207.972	-906.594	-637.291	13.315
2600	100.416	291.288	207.437	218.014	-904.599	-626.558	12.588
2700	100.416	295.078	210.613	228.055	-902.587	-615.902	11.915
2800	100.416	298.730	213.695	238.097	-900.557	-605.321	11.292
2900	100.416	302.254	216.689	248.138	-898.505	-594.813	10.714
3000	100.416	305.658	219.598	258.180	-896.429	-584.377	10.175
